partition function logs (1/cm^3, relative to the ground level) and their derivatives:
    T\Q           W1        first       second        CH3OO        first       second          CH4        first       second       CH3OOH        first       second          CH3        first       second
    200      77.6093    0.0392307 -0.000138312      70.2782    0.0183671 -7.37184e-05      61.7829    0.0150106 -7.45827e-05      71.0169    0.0208052 -7.87122e-05      62.5556    0.0155204 -7.05256e-05
    300      80.9832    0.0293832 -6.89349e-05      71.8381     0.013519 -3.12796e-05      63.0049    0.0101296 -3.13109e-05      72.8008     0.015596 -3.40538e-05      63.8426    0.0108577 -3.08631e-05
    400      83.6367    0.0241808 -3.89902e-05      73.0646    0.0112562  -1.6274e-05      63.8932   0.00789214 -1.57117e-05      74.2224    0.0130932 -1.83906e-05      64.8019    0.0085529 -1.71987e-05
    500      85.8877    0.0210725 -2.48245e-05      74.1214   0.00998235 -1.00415e-05      64.6174   0.00670409 -8.91719e-06       75.453    0.0116275 -1.17808e-05      65.5834   0.00718118  -1.0947e-05
    600      87.8849    0.0189935  -1.7489e-05      75.0752   0.00914105 -7.11625e-06      65.2496   0.00599439  -5.6455e-06      76.5631    0.0106274 -8.56477e-06      66.2532   0.00626913 -7.60547e-06
    700      89.7047    0.0174723  -1.3288e-05      75.9567   0.00851514 -5.54548e-06      65.8241   0.00552454 -3.92172e-06      77.5864   0.00986888 -6.75599e-06      66.8458   0.00561602  -5.6127e-06
    800      91.3904    0.0162846  -1.0652e-05      76.7822   0.00801197 -4.58727e-06      66.3588   0.00518583 -2.93794e-06      78.5416   0.00925474 -5.60276e-06      67.3817   0.00512332  -4.3282e-06
    900      92.9688    0.0153137 -8.87263e-06      77.5617   0.00758751 -3.93933e-06      66.8639   0.00492434 -2.33822e-06      79.4406   0.00873694 -4.79626e-06       67.874   0.00473684 -3.45422e-06
   1000      94.4581    0.0144933 -7.60158e-06      78.3016   0.00721833 -3.46651e-06      67.3453   0.00471115 -1.95212e-06      80.2913   0.00828871 -4.19527e-06      68.3315   0.00442403 -2.83575e-06
   1100      95.8711    0.0137828 -6.65202e-06      79.0067   0.00689063 -3.10189e-06      67.8071   0.00452978 -1.69124e-06      81.1001   0.00789349 -3.72727e-06      68.7605   0.00416416 -2.38426e-06
   1200      97.2174    0.0131559  -5.9161e-06      79.6808   0.00659558 -2.80905e-06       68.252   0.00437038 -1.50666e-06      81.8714   0.00754022  -3.3509e-06      69.1656   0.00394343  -2.0457e-06
   1300      98.5045    0.0125947 -5.32794e-06      80.3267   0.00632716 -2.56652e-06      68.6817   0.00422687 -1.37004e-06      82.6092   0.00722111 -3.04059e-06      69.5502   0.00375242 -1.78557e-06
   1400      99.7382    0.0120868  -4.8455e-06       80.947   0.00608105 -2.36089e-06      69.0978   0.00409535 -1.26435e-06      83.3166   0.00693045 -2.80354e-06      69.9169   0.00358447  -1.5811e-06
   1500      100.923     0.011623 -4.44106e-06      81.5436   0.00585404 -2.18334e-06      69.5011   0.00397332 -1.17917e-06      83.9961   0.00666394 -2.55635e-06      70.2677   0.00343486 -1.41699e-06
   1600      102.064    0.0111966 -4.09576e-06      82.1183   0.00564365 -2.02781e-06      69.8927   0.00385905 -1.10797e-06      84.6501   0.00641821 -2.36285e-06      70.6043   0.00330009 -1.28267e-06
   1700      103.164    0.0108023 -3.79646e-06      82.6728   0.00544789 -1.89005e-06      70.2732    0.0037514 -1.04659e-06      85.2804   0.00619058 -2.19319e-06      70.9281   0.00317758 -1.17079e-06
   1800      104.225    0.0104361 -3.53379e-06      83.2083   0.00526515 -1.76692e-06      70.6432    0.0036495 -9.92374e-07      85.8887   0.00597892 -2.04301e-06      71.2402   0.00306536 -1.07611e-06
   1900      105.252    0.0100946 -3.30086e-06      83.7262    0.0050941 -1.65608e-06      71.0032   0.00355274 -9.43559e-07      86.4766   0.00578144 -1.90901e-06      71.5415   0.00296191 -9.94866e-07
   2000      106.245   0.00977508 -3.09255e-06      84.2275   0.00493359 -1.55571e-06      71.3539   0.00346065 -8.98984e-07      87.0454   0.00559667 -1.78863e-06      71.8328   0.00286603 -9.24278e-07
   2100      107.207   0.00947536 -2.90494e-06      84.7132   0.00478265 -1.46439e-06      71.6955   0.00337283 -8.57856e-07      87.5964   0.00542333 -1.67988e-06      72.1149   0.00277677 -8.62289e-07
   2200      108.141    0.0091935 -2.73496e-06      85.1843   0.00464045 -1.38096e-06      72.0286   0.00328898 -8.19623e-07      88.1305   0.00526034 -1.57227e-06      72.3884   0.00269334 -8.07342e-07
   2300      109.047   0.00892786  -2.5802e-06      85.6416   0.00450623 -1.30447e-06      72.3534   0.00320882 -7.83889e-07      88.6487   0.00510681 -1.49113e-06      72.6538    0.0026151 -7.58243e-07
   2400      109.927   0.00867702 -2.43867e-06      86.0858   0.00437935 -1.23413e-06      72.6704   0.00313213 -7.50361e-07      89.1521   0.00496187 -1.40875e-06      72.9116   0.00254152 -7.14061e-07
   2500      110.782   0.00843974 -2.30878e-06      86.5177   0.00425922 -1.16927e-06        72.98   0.00305868 -7.18815e-07      89.6414   0.00482483 -1.33311e-06      73.1622   0.00247215 -6.74062e-07
   2600      111.615   0.00821492 -2.18918e-06      86.9379   0.00414533 -1.10933e-06      73.2823    0.0029883 -6.89073e-07      90.1173   0.00469505 -1.26345e-06      73.4061   0.00240659 -6.37658e-07
   2700      112.426    0.0080016 -2.07875e-06      87.3469   0.00403721 -1.05382e-06      73.5777   0.00292081 -6.60988e-07      90.5806   0.00457197 -1.19914e-06      73.6436   0.00234452 -6.04373e-07
   2800      113.216    0.0077989 -1.97651e-06      87.7455   0.00393444 -1.00229e-06      73.8665   0.00285605 -6.34437e-07      91.0319   0.00445507 -1.13963e-06      73.8751   0.00228563 -5.73816e-07
   2900      113.986   0.00760605 -1.88165e-06       88.134   0.00383663 -9.54388e-07       74.149   0.00279388 -6.09312e-07      91.4718    0.0043439 -1.08442e-06      74.1009   0.00222967 -5.45661e-07
   3000      114.737   0.00742235 -1.79345e-06       88.513   0.00374345 -9.09771e-07      74.4254   0.00273415 -5.85518e-07      91.9009   0.00423805 -1.03312e-06      74.3211   0.00217642 -5.19638e-07
 298.15      80.9287    0.0295114 -6.97451e-05      71.8131    0.0135772 -3.17145e-05      62.9861    0.0101879 -3.17548e-05      72.7719    0.0156595 -3.45076e-05      63.8224    0.0109151 -3.12529e-05
